SpectraSuite Data File
++++++++++++++++++++++++++++++++++++
Date: Thu Jun 19 14:06:34 PDT 2014
User: Unknown
Dark Spectrum Present: Yes
Reference Spectrum Present: No
Number of Sampled Component Spectra: 1
Spectrometers: USB2+H10536
Integration Time (usec): 5000000 (USB2+H10536)
Spectra Averaged: 5 (USB2+H10536)
Boxcar Smoothing: 0 (USB2+H10536)
Correct for Electrical Dark: No (USB2+H10536)
Strobe/Lamp Enabled: No (USB2+H10536)
Correct for Detector Non-linearity: Yes (USB2+H10536)
Correct for Stray Light: No (USB2+H10536)
Number of Pixels in Processed Spectrum: 2048
>>>>>Begin Processed Spectral Data<<<<<
179.12	0.0000E00
179.50	0.0000E00
179.89	0.0000E00
180.27	-0.0000E00
180.65	0.0000E00
181.03	-0.0000E00
181.42	-0.0000E00
181.80	-0.0000E00
182.18	0.0000E00
182.56	0.0000E00
182.94	0.0000E00
183.33	-0.0000E00
183.71	-0.0000E00
184.09	-0.0000E00
184.47	0.0000E00
184.85	-0.0000E00
185.24	0.0000E00
185.62	0.0000E00
186.00	-0.0000E00
186.38	0.0000E00
186.76	-0.0000E00
187.15	0.0000E00
187.53	0.0000E00
187.91	-0.0000E00
188.29	0.0000E00
188.67	0.0000E00
189.06	0.0000E00
189.44	-0.0000E00
189.82	0.0000E00
190.20	0.0000E00
190.58	-0.0000E00
190.96	0.0000E00
191.35	0.0000E00
191.73	-0.0000E00
192.11	0.0000E00
192.49	0.0000E00
192.87	0.0000E00
193.25	-0.0000E00
193.63	0.0000E00
194.02	0.0000E00
194.40	-0.0000E00
194.78	0.0000E00
195.16	0.0000E00
195.54	0.0000E00
195.92	0.0000E00
196.30	0.0000E00
196.68	0.0000E00
197.07	0.0000E00
197.45	0.0000E00
197.83	0.0000E00
198.21	0.0000E00
198.59	0.0000E00
198.97	-0.0000E00
199.35	0.0000E00
199.73	0.0000E00
200.11	2.5804E-01
200.49	3.7628E-02
200.88	3.2166E-01
201.26	2.1061E-01
201.64	-7.6726E-02
202.02	-1.1992E-01
202.40	2.9198E-02
202.78	2.1508E-02
203.16	1.3120E-01
203.54	1.0966E-01
203.92	1.2011E-01
204.30	1.1729E-01
204.68	3.0060E-01
205.06	2.1638E-01
205.44	3.8705E-02
205.82	1.9520E-01
206.20	2.4256E-01
206.59	9.6229E-02
206.97	4.5116E-02
207.35	2.6500E-01
207.73	6.1533E-02
208.11	1.0845E-01
208.49	6.3662E-03
208.87	8.5208E-02
209.25	-1.4316E-02
209.63	-4.3868E-02
210.01	1.8638E-01
210.39	3.9469E-02
210.77	9.2728E-02
211.15	6.5020E-02
211.53	1.0162E-01
211.91	-4.5966E-02
212.29	-1.9008E-02
212.67	7.0968E-02
213.05	-2.6944E-03
213.43	-6.9454E-03
213.81	2.8039E-02
214.19	6.0560E-02
214.57	-1.1320E-02
214.95	3.9379E-02
215.33	6.8007E-02
215.71	9.2807E-02
216.09	2.3360E-02
216.47	8.2946E-02
216.85	7.9403E-02
217.23	-4.9215E-02
217.61	7.1331E-02
217.99	7.2503E-02
218.37	4.4594E-03
218.74	2.9735E-02
219.12	1.6452E-02
219.50	1.0117E-02
219.88	3.7813E-02
220.26	4.5622E-02
220.64	7.8827E-02
221.02	-1.1512E-02
221.40	-1.1805E-02
221.78	6.2915E-02
222.16	3.6396E-02
222.54	5.5506E-02
222.92	1.5789E-02
223.30	2.8538E-02
223.68	4.1654E-02
224.06	-4.8596E-02
224.43	3.1648E-02
224.81	5.9320E-02
225.19	4.2299E-02
225.57	3.5228E-02
225.95	4.8842E-02
226.33	3.5118E-02
226.71	3.4166E-02
227.09	2.8051E-02
227.47	6.8938E-02
227.85	3.6642E-02
228.22	5.9644E-02
228.60	6.3416E-02
228.98	2.5887E-02
229.36	3.6304E-02
229.74	1.2143E-02
230.12	3.7624E-02
230.50	-1.8713E-02
230.88	3.2453E-02
231.25	1.5729E-02
231.63	3.4739E-02
232.01	2.7703E-02
232.39	2.7394E-03
232.77	5.8867E-02
233.15	1.4696E-02
233.52	1.7924E-02
233.90	-2.8432E-03
234.28	3.4396E-02
234.66	2.0201E-02
235.04	-2.4528E-03
235.42	3.2407E-02
235.79	1.4418E-02
236.17	3.7146E-02
236.55	2.0884E-02
236.93	2.2404E-02
237.31	1.1911E-02
237.69	-1.2694E-02
238.06	2.4822E-02
238.44	9.7052E-03
238.82	1.5404E-02
239.20	1.3535E-02
239.58	2.2364E-02
239.95	3.0603E-02
240.33	2.1626E-02
240.71	9.3587E-03
241.09	-6.8089E-03
241.46	-5.0651E-03
241.84	1.4991E-02
242.22	6.7723E-03
242.60	1.5443E-02
242.98	1.9893E-04
243.35	2.2710E-02
243.73	2.4371E-02
244.11	1.6957E-02
244.49	2.8205E-02
244.86	1.3325E-02
245.24	1.9671E-02
245.62	2.4808E-02
246.00	4.4809E-02
246.37	1.0494E-02
246.75	2.1197E-02
247.13	5.5331E-03
247.51	1.6147E-02
247.88	1.3316E-03
248.26	-3.3122E-04
248.64	5.7233E-03
249.01	1.2135E-02
249.39	2.8278E-02
249.77	1.2631E-02
250.15	1.4985E-02
250.52	-1.2183E-03
250.90	1.5911E-02
251.28	3.6073E-03
251.65	1.2739E-02
252.03	1.5636E-02
252.41	2.3718E-02
252.78	7.5939E-03
253.16	1.6072E-02
253.54	-3.7642E-03
253.92	1.0396E-02
254.29	8.1508E-04
254.67	-2.8271E-03
255.05	1.2826E-02
255.42	7.2514E-03
255.80	5.0843E-03
256.18	7.1185E-03
256.55	1.2264E-02
256.93	1.0720E-02
257.31	9.1329E-03
257.68	3.4572E-03
258.06	1.9703E-03
258.43	4.4891E-03
258.81	6.3873E-03
259.19	1.6115E-02
259.56	1.2235E-02
259.94	1.5654E-02
260.32	1.4044E-02
260.69	1.2946E-02
261.07	1.5966E-02
261.45	5.5096E-03
261.82	7.5499E-03
262.20	1.2653E-02
262.57	7.9806E-03
262.95	5.4108E-03
263.33	4.3857E-03
263.70	1.0209E-02
264.08	5.4686E-03
264.45	7.0153E-03
264.83	4.1422E-04
265.21	5.7819E-03
265.58	1.5145E-02
265.96	5.4858E-03
266.33	1.1843E-02
266.71	8.2079E-03
267.08	8.4802E-03
267.46	7.8950E-03
267.84	1.2956E-02
268.21	1.0593E-02
268.59	1.4561E-02
268.96	1.3233E-02
269.34	7.3064E-03
269.71	1.1240E-02
270.09	1.3190E-02
270.46	7.9861E-03
270.84	8.4708E-03
271.22	3.6844E-04
271.59	2.9152E-03
271.97	5.4127E-03
272.34	1.5519E-02
272.72	4.7122E-03
273.09	5.9672E-03
273.47	5.3908E-03
273.84	1.0378E-02
274.22	-6.8484E-04
274.59	1.4423E-03
274.97	7.6625E-03
275.34	4.5741E-03
275.72	2.7172E-03
276.09	6.0577E-03
276.47	3.3294E-03
276.84	4.8962E-03
277.22	9.3752E-03
277.59	3.9426E-03
277.97	5.7873E-03
278.34	1.0237E-02
278.72	6.7466E-03
279.09	1.5869E-02
279.47	9.7667E-03
279.84	5.1552E-03
280.22	2.2176E-04
280.59	8.0569E-03
280.96	6.3656E-03
281.34	1.9382E-03
281.71	2.1480E-04
282.09	-2.3311E-03
282.46	1.3797E-03
282.84	6.4098E-03
283.21	3.2179E-03
283.59	4.1362E-03
283.96	1.0064E-03
284.33	2.7925E-03
284.71	7.4049E-03
285.08	-5.2278E-04
285.46	7.7963E-03
285.83	5.3958E-03
286.21	5.9970E-03
286.58	2.4682E-03
286.95	5.6450E-04
287.33	3.1167E-04
287.70	3.1439E-03
288.08	3.2493E-03
288.45	5.1192E-03
288.82	1.5249E-02
289.20	1.0048E-02
289.57	5.8062E-03
289.95	4.0456E-03
290.32	6.3178E-03
290.69	3.1765E-03
291.07	7.3149E-03
291.44	1.1574E-02
291.81	8.6933E-03
292.19	4.9068E-03
292.56	-2.1217E-02
292.93	7.5731E-03
293.31	8.6445E-03
293.68	6.1635E-03
294.06	1.0292E-02
294.43	3.1468E-03
294.80	8.9125E-03
295.18	7.2401E-03
295.55	2.4326E-03
295.92	7.3718E-03
296.30	5.6527E-03
296.67	5.1423E-03
297.04	1.2474E-03
297.42	2.5592E-03
297.79	6.1303E-03
298.16	4.1110E-03
298.53	1.6797E-03
298.91	5.1750E-03
299.28	6.1096E-03
299.65	7.5686E-03
300.03	3.0633E-03
300.40	6.5293E-03
300.77	2.2852E-03
301.15	3.3610E-03
301.52	5.3402E-03
301.89	7.5105E-04
302.26	1.0095E-02
302.64	2.8238E-03
303.01	5.0287E-03
303.38	2.0197E-03
303.75	6.7304E-03
304.13	3.7886E-03
304.50	2.8742E-03
304.87	5.1143E-03
305.24	7.8275E-03
305.62	7.7518E-03
305.99	5.2160E-03
306.36	1.5591E-03
306.73	4.4117E-03
307.11	5.5577E-03
307.48	6.9388E-03
307.85	4.2351E-03
308.22	4.2717E-03
308.60	9.0857E-03
308.97	4.8525E-03
309.34	4.4007E-03
309.71	5.4161E-03
310.08	3.4288E-03
310.46	4.8080E-03
310.83	3.1582E-03
311.20	4.8554E-03
311.57	5.2364E-03
311.94	3.8510E-03
312.32	3.0662E-03
312.69	1.3712E-03
313.06	1.4714E-03
313.43	4.8472E-03
313.80	4.1439E-03
314.17	2.7521E-03
314.55	2.5129E-03
314.92	5.8710E-03
315.29	4.0129E-03
315.66	4.6697E-03
316.03	3.2665E-03
316.40	5.4096E-03
316.78	2.7141E-03
317.15	5.0253E-03
317.52	1.9053E-03
317.89	2.4263E-03
318.26	1.5790E-03
318.63	4.1169E-03
319.00	3.7951E-03
319.37	1.1348E-03
319.75	4.8639E-04
320.12	3.4508E-03
320.49	3.4961E-03
320.86	2.7682E-03
321.23	-1.2958E-03
321.60	1.5747E-03
321.97	5.5699E-03
322.34	5.2830E-03
322.71	1.3401E-03
323.09	1.9525E-03
323.46	3.7574E-03
323.83	4.1066E-03
324.20	4.2423E-03
324.57	4.8892E-03
324.94	3.8531E-03
325.31	3.8514E-03
325.68	2.5176E-03
326.05	1.4417E-03
326.42	3.1511E-03
326.79	5.8233E-03
327.16	1.8059E-03
327.53	8.8169E-04
327.90	4.1014E-03
328.27	3.5498E-03
328.65	2.4203E-03
329.02	3.5922E-03
329.39	2.5373E-03
329.76	4.6133E-03
330.13	1.9037E-03
330.50	4.8355E-03
330.87	4.4367E-03
331.24	2.1615E-03
331.61	2.1250E-03
331.98	2.9636E-03
332.35	3.3264E-03
332.72	3.1315E-03
333.09	2.0060E-03
333.46	3.4396E-03
333.83	4.6077E-03
334.20	2.1869E-03
334.57	3.1823E-03
334.94	1.8327E-03
335.31	2.1316E-03
335.68	1.9811E-03
336.05	2.7413E-03
336.42	2.0052E-03
336.79	1.7147E-03
337.16	2.7598E-03
337.52	4.1195E-04
337.89	3.7068E-03
338.26	2.9984E-03
338.63	3.6138E-03
339.00	2.5448E-03
339.37	2.3405E-03
339.74	3.5556E-03
340.11	2.4129E-03
340.48	3.7316E-03
340.85	1.8294E-03
341.22	2.1831E-03
341.59	9.3172E-04
341.96	8.7282E-04
342.33	3.3062E-03
342.70	1.9663E-03
343.06	1.0390E-03
343.43	1.9311E-03
343.80	3.4457E-03
344.17	3.4639E-03
344.54	2.5249E-03
344.91	2.9924E-03
345.28	2.5237E-03
345.65	3.3980E-03
346.02	2.8259E-03
346.38	4.5425E-04
346.75	2.1675E-03
347.12	2.7267E-03
347.49	4.0358E-03
347.86	2.7373E-03
348.23	2.0046E-03
348.60	1.1287E-03
348.96	1.8435E-04
349.33	1.3377E-03
349.70	-7.2960E-05
350.07	1.6003E-03
350.44	2.2668E-03
350.81	1.5292E-03
351.18	4.6677E-04
351.54	1.6621E-03
351.91	2.7232E-03
352.28	1.5905E-04
352.65	1.7437E-03
353.02	3.3576E-03
353.38	2.4455E-03
353.75	3.1211E-04
354.12	1.7694E-03
354.49	2.0626E-03
354.86	3.1990E-03
355.22	3.5122E-03
355.59	3.5183E-03
355.96	2.2924E-03
356.33	3.3686E-05
356.70	1.5768E-03
357.06	2.6251E-03
357.43	1.2588E-03
357.80	1.6526E-03
358.17	2.8512E-03
358.53	1.7920E-03
358.90	2.1000E-03
359.27	3.2650E-03
359.64	2.1554E-03
360.00	2.1466E-03
360.37	2.1938E-03
360.74	3.2163E-03
361.11	1.3998E-03
361.47	1.3595E-03
361.84	2.0573E-03
362.21	1.9257E-03
362.58	1.3839E-03
362.94	2.0481E-03
363.31	1.3199E-03
363.68	3.4405E-03
364.04	3.8887E-03
364.41	1.8243E-03
364.78	2.3638E-03
365.15	2.4234E-03
365.51	2.3589E-03
365.88	2.0560E-03
366.25	3.1868E-03
366.61	2.3731E-03
366.98	1.9503E-03
367.35	2.0246E-03
367.71	3.4641E-03
368.08	1.7860E-03
368.45	1.1177E-03
368.81	1.5128E-03
369.18	2.4414E-03
369.55	2.8779E-03
369.91	2.0470E-03
370.28	2.9882E-03
370.65	2.4391E-03
371.01	1.6329E-03
371.38	2.1401E-03
371.74	3.3482E-03
372.11	2.2382E-03
372.48	2.4899E-03
372.84	1.5874E-03
373.21	2.0437E-03
373.58	1.5696E-03
373.94	3.2045E-03
374.31	2.8890E-03
374.67	1.6829E-03
375.04	1.5054E-03
375.41	6.1200E-04
375.77	1.3727E-03
376.14	2.1427E-03
376.50	2.3797E-03
376.87	3.4875E-03
377.24	2.3761E-04
377.60	1.4087E-03
377.97	1.6536E-03
378.33	1.5180E-03
378.70	1.9286E-03
379.06	1.1120E-03
379.43	3.1613E-03
379.80	1.3016E-03
380.16	3.0402E-03
380.53	2.1350E-03
380.89	1.0783E-03
381.26	3.8833E-03
381.62	2.1059E-03
381.99	2.6308E-03
382.35	1.7958E-03
382.72	3.2924E-03
383.08	1.9943E-03
383.45	1.0572E-03
383.81	3.1302E-03
384.18	2.3564E-03
384.54	2.5683E-03
384.91	2.1301E-03
385.27	2.1691E-03
385.64	2.7864E-03
386.00	2.3585E-03
386.37	1.9944E-03
386.73	2.8320E-03
387.10	3.4632E-03
387.46	2.8380E-03
387.83	2.0335E-03
388.19	4.3377E-03
388.56	1.9075E-03
388.92	3.5894E-03
389.29	2.8356E-03
389.65	1.7275E-03
390.02	2.8403E-03
390.38	4.4660E-03
390.74	2.9330E-03
391.11	4.1591E-03
391.47	4.8694E-03
391.84	5.5431E-03
392.20	6.6206E-03
392.57	5.3210E-03
392.93	6.5598E-03
393.29	6.0462E-03
393.66	7.5648E-03
394.02	7.9266E-03
394.39	9.5884E-03
394.75	8.9470E-03
395.12	1.1463E-02
395.48	1.1635E-02
395.84	1.2437E-02
396.21	1.2639E-02
396.57	1.5566E-02
396.93	1.5895E-02
397.30	1.6110E-02
397.66	1.5867E-02
398.03	1.7658E-02
398.39	1.8742E-02
398.75	1.9997E-02
399.12	2.0156E-02
399.48	2.1061E-02
399.84	2.3468E-02
400.21	2.3760E-02
400.57	2.5637E-02
400.93	2.7369E-02
401.30	2.7439E-02
401.66	2.7864E-02
402.02	3.0040E-02
402.39	2.8329E-02
402.75	3.0658E-02
403.11	3.2122E-02
403.48	3.1862E-02
403.84	3.3598E-02
404.20	3.4799E-02
404.57	3.7133E-02
404.93	3.6059E-02
405.29	3.6762E-02
405.66	3.7875E-02
406.02	3.9881E-02
406.38	3.9918E-02
406.74	4.0870E-02
407.11	3.9980E-02
407.47	4.1486E-02
407.83	4.1928E-02
408.19	4.1856E-02
408.56	4.2686E-02
408.92	4.4148E-02
409.28	4.5114E-02
409.65	4.3805E-02
410.01	4.6449E-02
410.37	4.7349E-02
410.73	4.5267E-02
411.09	4.7351E-02
411.46	5.0250E-02
411.82	4.9615E-02
412.18	5.0736E-02
412.54	5.2970E-02
412.91	5.3836E-02
413.27	5.3481E-02
413.63	5.5551E-02
413.99	5.7595E-02
414.35	5.8891E-02
414.72	6.0580E-02
415.08	5.8567E-02
415.44	6.0343E-02
415.80	6.3466E-02
416.16	6.3070E-02
416.53	6.3563E-02
416.89	6.5599E-02
417.25	6.6472E-02
417.61	6.5993E-02
417.97	6.8278E-02
418.33	6.9405E-02
418.70	7.0498E-02
419.06	7.1801E-02
419.42	7.2170E-02
419.78	7.1379E-02
420.14	7.5496E-02
420.50	7.4840E-02
420.86	7.5132E-02
421.23	7.7954E-02
421.59	7.7945E-02
421.95	8.0146E-02
422.31	7.9341E-02
422.67	8.1019E-02
423.03	8.3496E-02
423.39	8.5908E-02
423.75	8.3861E-02
424.12	8.4537E-02
424.48	8.5135E-02
424.84	8.6873E-02
425.20	8.9583E-02
425.56	8.8299E-02
425.92	9.2408E-02
426.28	9.0152E-02
426.64	8.9902E-02
427.00	8.9335E-02
427.36	8.9858E-02
427.72	9.0153E-02
428.08	9.2769E-02
428.44	9.2263E-02
428.80	9.4296E-02
429.17	9.1569E-02
429.53	9.0911E-02
429.89	9.5108E-02
430.25	9.3236E-02
430.61	9.5845E-02
430.97	9.5007E-02
431.33	9.7446E-02
431.69	9.7651E-02
432.05	9.8133E-02
432.41	9.9859E-02
432.77	1.0107E-01
433.13	1.0371E-01
433.49	1.0500E-01
433.85	1.0547E-01
434.21	1.1027E-01
434.57	1.1033E-01
434.93	1.1073E-01
435.29	1.1339E-01
435.65	1.1460E-01
436.01	1.1817E-01
436.37	1.2079E-01
436.73	1.2249E-01
437.09	1.2450E-01
437.45	1.2593E-01
437.80	1.2498E-01
438.16	1.2971E-01
438.52	1.3099E-01
438.88	1.3360E-01
439.24	1.3466E-01
439.60	1.3378E-01
439.96	1.3692E-01
440.32	1.4035E-01
440.68	1.3950E-01
441.04	1.3892E-01
441.40	1.4108E-01
441.76	1.4181E-01
442.12	1.4212E-01
442.48	1.4236E-01
442.83	1.4271E-01
443.19	1.4470E-01
443.55	1.4394E-01
443.91	1.4505E-01
444.27	1.4984E-01
444.63	1.4996E-01
444.99	1.4868E-01
445.35	1.5217E-01
445.70	1.5139E-01
446.06	1.5145E-01
446.42	1.5323E-01
446.78	1.5786E-01
447.14	1.5432E-01
447.50	1.6004E-01
447.86	1.5846E-01
448.21	1.6384E-01
448.57	1.6569E-01
448.93	1.6788E-01
449.29	1.6780E-01
449.65	1.6600E-01
450.01	1.7177E-01
450.36	1.7269E-01
450.72	1.7025E-01
451.08	1.7913E-01
451.44	1.8078E-01
451.80	1.8164E-01
452.15	1.8497E-01
452.51	1.7951E-01
452.87	1.7906E-01
453.23	1.8428E-01
453.59	1.8527E-01
453.94	1.8454E-01
454.30	1.8495E-01
454.66	1.8336E-01
455.02	1.8529E-01
455.37	1.8763E-01
455.73	1.8676E-01
456.09	1.8896E-01
456.45	1.8953E-01
456.80	1.9069E-01
457.16	1.9093E-01
457.52	1.9007E-01
457.88	1.8675E-01
458.23	1.8836E-01
458.59	1.8690E-01
458.95	1.9231E-01
459.31	1.9242E-01
459.66	1.8778E-01
460.02	1.9354E-01
460.38	1.9646E-01
460.73	1.9312E-01
461.09	1.9620E-01
461.45	1.9100E-01
461.80	1.9229E-01
462.16	1.9356E-01
462.52	1.9629E-01
462.88	1.9969E-01
463.23	1.9763E-01
463.59	1.9669E-01
463.95	1.9762E-01
464.30	1.9748E-01
464.66	2.0038E-01
465.01	2.0170E-01
465.37	2.0083E-01
465.73	2.0274E-01
466.08	2.0084E-01
466.44	2.0151E-01
466.80	2.0340E-01
467.15	2.0217E-01
467.51	2.0277E-01
467.87	2.0360E-01
468.22	2.0634E-01
468.58	2.0057E-01
468.93	2.0553E-01
469.29	2.0393E-01
469.65	2.0549E-01
470.00	2.0615E-01
470.36	2.0517E-01
470.71	2.0425E-01
471.07	2.0989E-01
471.43	2.0387E-01
471.78	2.0401E-01
472.14	2.0378E-01
472.49	2.0513E-01
472.85	2.0352E-01
473.20	2.0429E-01
473.56	2.0411E-01
473.92	2.0893E-01
474.27	2.0526E-01
474.63	2.0649E-01
474.98	2.1080E-01
475.34	2.0891E-01
475.69	2.0870E-01
476.05	2.0693E-01
476.40	2.0833E-01
476.76	2.0901E-01
477.11	2.0993E-01
477.47	2.0784E-01
477.82	2.1047E-01
478.18	2.0988E-01
478.53	2.1176E-01
478.89	2.1206E-01
479.24	2.1290E-01
479.60	2.1267E-01
479.95	2.1281E-01
480.31	2.1434E-01
480.66	2.1307E-01
481.02	2.1317E-01
481.37	2.1544E-01
481.73	2.1513E-01
482.08	2.1574E-01
482.44	2.1516E-01
482.79	2.1463E-01
483.14	2.1602E-01
483.50	2.1693E-01
483.85	2.1623E-01
484.21	2.1566E-01
484.56	2.1677E-01
484.92	2.1601E-01
485.27	2.1657E-01
485.62	2.1524E-01
485.98	2.1694E-01
486.33	2.1709E-01
486.69	2.1824E-01
487.04	2.1783E-01
487.39	2.1661E-01
487.75	2.1902E-01
488.10	2.1550E-01
488.46	2.1814E-01
488.81	2.1568E-01
489.16	2.1793E-01
489.52	2.1839E-01
489.87	2.1852E-01
490.22	2.1925E-01
490.58	2.2012E-01
490.93	2.1740E-01
491.29	2.2001E-01
491.64	2.2078E-01
491.99	2.2049E-01
492.35	2.2016E-01
492.70	2.2008E-01
493.05	2.2091E-01
493.41	2.2177E-01
493.76	2.2158E-01
494.11	2.2279E-01
494.47	2.2353E-01
494.82	2.2269E-01
495.17	2.2233E-01
495.52	2.2341E-01
495.88	2.2322E-01
496.23	2.2546E-01
496.58	2.2622E-01
496.94	2.2446E-01
497.29	2.2729E-01
497.64	2.2609E-01
497.99	2.2582E-01
498.35	2.2732E-01
498.70	2.2789E-01
499.05	2.2813E-01
499.40	2.2809E-01
499.76	2.2718E-01
500.11	2.2842E-01
500.46	2.2997E-01
500.81	2.3085E-01
501.17	2.2930E-01
501.52	2.3115E-01
501.87	2.2945E-01
502.22	2.2851E-01
502.58	2.3213E-01
502.93	2.3180E-01
503.28	2.3024E-01
503.63	2.3220E-01
503.98	2.3032E-01
504.34	2.3021E-01
504.69	2.3479E-01
505.04	2.3232E-01
505.39	2.3276E-01
505.74	2.3405E-01
506.10	2.3429E-01
506.45	2.3404E-01
506.80	2.3353E-01
507.15	2.3301E-01
507.50	2.3424E-01
507.85	2.3329E-01
508.20	2.3525E-01
508.56	2.3466E-01
508.91	2.3796E-01
509.26	2.3546E-01
509.61	2.3504E-01
509.96	2.3611E-01
510.31	2.3831E-01
510.66	2.3718E-01
511.02	2.3741E-01
511.37	2.3550E-01
511.72	2.3816E-01
512.07	2.3860E-01
512.42	2.3809E-01
512.77	2.3862E-01
513.12	2.3740E-01
513.47	2.3901E-01
513.82	2.3833E-01
514.17	2.4090E-01
514.52	2.4025E-01
514.88	2.4058E-01
515.23	2.4059E-01
515.58	2.4242E-01
515.93	2.4235E-01
516.28	2.4274E-01
516.63	2.4406E-01
516.98	2.4240E-01
517.33	2.4354E-01
517.68	2.4469E-01
518.03	2.4389E-01
518.38	2.4491E-01
518.73	2.4613E-01
519.08	2.4588E-01
519.43	2.4686E-01
519.78	2.4669E-01
520.13	2.4847E-01
520.48	2.4671E-01
520.83	2.4855E-01
521.18	2.4683E-01
521.53	2.4598E-01
521.88	2.4767E-01
522.23	2.4845E-01
522.58	2.4995E-01
522.93	2.4969E-01
523.28	2.4960E-01
523.63	2.5187E-01
523.98	2.5167E-01
524.33	2.5171E-01
524.68	2.5134E-01
525.03	2.5088E-01
525.38	2.5213E-01
525.73	2.5350E-01
526.07	2.5307E-01
526.42	2.5399E-01
526.77	2.5604E-01
527.12	2.5459E-01
527.47	2.5285E-01
527.82	2.5468E-01
528.17	2.5685E-01
528.52	2.5648E-01
528.87	2.5539E-01
529.22	2.5693E-01
529.57	2.5677E-01
529.91	2.6022E-01
530.26	2.5825E-01
530.61	2.5975E-01
530.96	2.6004E-01
531.31	2.5964E-01
531.66	2.6112E-01
532.01	2.6093E-01
532.35	2.6117E-01
532.70	2.6215E-01
533.05	2.6119E-01
533.40	2.6177E-01
533.75	2.6455E-01
534.10	2.6254E-01
534.44	2.6425E-01
534.79	2.6213E-01
535.14	2.6324E-01
535.49	2.6565E-01
535.84	2.6522E-01
536.19	2.6657E-01
536.53	2.6739E-01
536.88	2.6788E-01
537.23	2.6762E-01
537.58	2.6856E-01
537.93	2.6901E-01
538.27	2.6560E-01
538.62	2.7159E-01
538.97	2.6755E-01
539.32	2.7075E-01
539.66	2.7117E-01
540.01	2.7320E-01
540.36	2.7076E-01
540.71	2.7263E-01
541.05	2.7302E-01
541.40	2.7308E-01
541.75	2.7525E-01
542.10	2.7581E-01
542.44	2.7405E-01
542.79	2.7549E-01
543.14	2.7727E-01
543.48	2.7588E-01
543.83	2.7945E-01
544.18	2.7770E-01
544.53	2.7780E-01
544.87	2.7846E-01
545.22	2.7864E-01
545.57	2.7919E-01
545.91	2.8084E-01
546.26	2.8232E-01
546.61	2.7904E-01
546.95	2.8353E-01
547.30	2.8145E-01
547.65	2.8372E-01
547.99	2.8455E-01
548.34	2.8627E-01
548.69	2.8459E-01
549.03	2.8556E-01
549.38	2.8729E-01
549.73	2.8580E-01
550.07	2.8678E-01
550.42	2.8768E-01
550.76	2.8817E-01
551.11	2.9024E-01
551.46	2.8831E-01
551.80	2.8985E-01
552.15	2.9111E-01
552.49	2.8990E-01
552.84	2.9075E-01
553.19	2.9246E-01
553.53	2.9233E-01
553.88	2.9265E-01
554.22	2.9388E-01
554.57	2.9414E-01
554.92	2.9497E-01
555.26	2.9587E-01
555.61	2.9763E-01
555.95	2.9562E-01
556.30	2.9631E-01
556.64	2.9840E-01
556.99	2.9817E-01
557.33	3.0048E-01
557.68	2.9914E-01
558.02	2.9985E-01
558.37	2.9892E-01
558.71	3.0319E-01
559.06	3.0129E-01
559.40	3.0260E-01
559.75	3.0420E-01
560.09	3.0210E-01
560.44	3.0328E-01
560.78	3.0437E-01
561.13	3.0321E-01
561.47	3.0462E-01
561.82	3.0565E-01
562.16	3.0530E-01
562.51	3.0800E-01
562.85	3.0762E-01
563.20	3.0866E-01
563.54	3.0679E-01
563.89	3.1007E-01
564.23	3.0778E-01
564.58	3.1057E-01
564.92	3.0884E-01
565.26	3.0921E-01
565.61	3.1153E-01
565.95	3.1181E-01
566.30	3.1412E-01
566.64	3.1306E-01
566.99	3.1377E-01
567.33	3.1180E-01
567.67	3.1586E-01
568.02	3.1441E-01
568.36	3.1580E-01
568.71	3.1695E-01
569.05	3.1635E-01
569.39	3.1448E-01
569.74	3.1853E-01
570.08	3.1667E-01
570.42	3.1802E-01
570.77	3.1830E-01
571.11	3.1924E-01
571.45	3.2064E-01
571.80	3.2257E-01
572.14	3.1947E-01
572.48	3.1947E-01
572.83	3.2303E-01
573.17	3.2128E-01
573.51	3.2281E-01
573.86	3.2430E-01
574.20	3.2446E-01
574.54	3.2346E-01
574.89	3.2582E-01
575.23	3.2622E-01
575.57	3.2298E-01
575.92	3.2360E-01
576.26	3.2739E-01
576.60	3.2710E-01
576.94	3.2806E-01
577.29	3.2747E-01
577.63	3.2917E-01
577.97	3.2960E-01
578.31	3.2991E-01
578.66	3.2994E-01
579.00	3.3241E-01
579.34	3.2845E-01
579.68	3.3208E-01
580.03	3.3159E-01
580.37	3.2986E-01
580.71	3.3642E-01
581.05	3.3173E-01
581.40	3.3252E-01
581.74	3.3597E-01
582.08	3.3704E-01
582.42	3.3683E-01
582.76	3.3561E-01
583.11	3.3905E-01
583.45	3.3637E-01
583.79	3.3846E-01
584.13	3.3555E-01
584.47	3.3878E-01
584.82	3.3754E-01
585.16	3.3980E-01
585.50	3.4240E-01
585.84	3.4236E-01
586.18	3.4104E-01
586.52	3.4206E-01
586.86	3.4347E-01
587.21	3.4282E-01
587.55	3.4324E-01
587.89	3.4422E-01
588.23	3.4753E-01
588.57	3.4623E-01
588.91	3.4723E-01
589.25	3.4568E-01
589.59	3.4801E-01
589.94	3.4934E-01
590.28	3.4672E-01
590.62	3.4880E-01
590.96	3.4616E-01
591.30	3.5185E-01
591.64	3.5208E-01
591.98	3.5193E-01
592.32	3.5336E-01
592.66	3.5092E-01
593.00	3.5410E-01
593.34	3.5343E-01
593.68	3.5275E-01
594.02	3.5488E-01
594.36	3.5534E-01
594.70	3.5645E-01
595.05	3.5538E-01
595.39	3.5529E-01
595.73	3.5830E-01
596.07	3.5795E-01
596.41	3.5786E-01
596.75	3.5987E-01
597.09	3.5738E-01
597.43	3.5992E-01
597.77	3.6427E-01
598.11	3.6023E-01
598.45	3.6145E-01
598.79	3.6309E-01
599.13	3.6186E-01
599.47	3.6272E-01
599.80	3.6353E-01
600.14	3.6593E-01
600.48	3.6602E-01
600.82	3.6855E-01
601.16	3.6715E-01
601.50	3.6678E-01
601.84	3.6757E-01
602.18	3.6799E-01
602.52	3.6734E-01
602.86	3.7470E-01
603.20	3.6933E-01
603.54	3.7110E-01
603.88	3.7334E-01
604.22	3.7191E-01
604.56	3.7426E-01
604.89	3.7308E-01
605.23	3.7522E-01
605.57	3.7386E-01
605.91	3.7559E-01
606.25	3.7753E-01
606.59	3.7633E-01
606.93	3.7892E-01
607.27	3.7673E-01
607.60	3.7825E-01
607.94	3.8106E-01
608.28	3.8299E-01
608.62	3.8144E-01
608.96	3.8079E-01
609.30	3.8373E-01
609.63	3.8221E-01
609.97	3.8454E-01
610.31	3.8413E-01
610.65	3.8142E-01
610.99	3.8271E-01
611.33	3.8369E-01
611.66	3.8457E-01
612.00	3.8560E-01
612.34	3.8560E-01
612.68	3.8846E-01
613.02	3.8685E-01
613.35	3.8797E-01
613.69	3.8987E-01
614.03	3.9137E-01
614.37	3.8747E-01
614.70	3.8903E-01
615.04	3.9184E-01
615.38	3.9259E-01
615.72	3.8908E-01
616.05	3.9206E-01
616.39	3.9211E-01
616.73	3.9385E-01
617.07	3.9382E-01
617.40	3.9343E-01
617.74	3.9236E-01
618.08	3.9751E-01
618.41	3.9284E-01
618.75	3.9657E-01
619.09	3.9367E-01
619.42	3.9884E-01
619.76	3.9656E-01
620.10	3.9884E-01
620.44	3.9873E-01
620.77	3.9921E-01
621.11	3.9754E-01
621.45	4.0040E-01
621.78	3.9933E-01
622.12	3.9998E-01
622.45	4.0383E-01
622.79	4.0153E-01
623.13	4.0244E-01
623.46	4.0289E-01
623.80	4.0292E-01
624.14	4.0641E-01
624.47	4.0652E-01
624.81	4.0602E-01
625.14	4.0802E-01
625.48	4.0676E-01
625.82	4.0777E-01
626.15	4.0958E-01
626.49	4.1308E-01
626.82	4.0765E-01
627.16	4.1242E-01
627.50	4.0966E-01
627.83	4.1281E-01
628.17	4.1240E-01
628.50	4.1319E-01
628.84	4.1635E-01
629.17	4.1517E-01
629.51	4.1647E-01
629.85	4.1692E-01
630.18	4.1695E-01
630.52	4.1765E-01
630.85	4.2021E-01
631.19	4.1690E-01
631.52	4.2016E-01
631.86	4.2397E-01
632.19	4.2073E-01
632.53	4.2277E-01
632.86	4.2151E-01
633.20	4.2267E-01
633.53	4.2456E-01
633.87	4.2668E-01
634.20	4.2515E-01
634.54	4.2775E-01
634.87	4.2493E-01
635.21	4.2502E-01
635.54	4.3022E-01
635.87	4.3256E-01
636.21	4.2904E-01
636.54	4.3256E-01
636.88	4.3426E-01
637.21	4.3032E-01
637.55	4.3160E-01
637.88	4.3328E-01
638.22	4.3456E-01
638.55	4.3402E-01
638.88	4.3584E-01
639.22	4.3428E-01
639.55	4.3446E-01
639.89	4.3790E-01
640.22	4.3715E-01
640.55	4.4190E-01
640.89	4.3770E-01
641.22	4.3963E-01
641.55	4.4433E-01
641.89	4.4170E-01
642.22	4.4113E-01
642.56	4.4148E-01
642.89	4.4536E-01
643.22	4.4369E-01
643.56	4.4043E-01
643.89	4.4172E-01
644.22	4.4457E-01
644.56	4.4461E-01
644.89	4.4462E-01
645.22	4.4850E-01
645.56	4.4782E-01
645.89	4.4494E-01
646.22	4.5236E-01
646.55	4.4813E-01
646.89	4.4958E-01
647.22	4.4983E-01
647.55	4.5080E-01
647.89	4.5437E-01
648.22	4.5085E-01
648.55	4.5053E-01
648.88	4.5127E-01
649.22	4.5220E-01
649.55	4.5322E-01
649.88	4.5312E-01
650.21	4.5528E-01
650.55	4.5505E-01
650.88	4.5691E-01
651.21	4.5535E-01
651.54	4.6158E-01
651.88	4.5686E-01
652.21	4.5776E-01
652.54	4.5932E-01
652.87	4.5860E-01
653.20	4.6214E-01
653.54	4.6532E-01
653.87	4.4274E-01
654.20	4.6003E-01
654.53	4.6308E-01
654.86	4.6845E-01
655.19	4.7038E-01
655.53	4.6433E-01
655.86	4.6686E-01
656.19	4.6342E-01
656.52	4.6875E-01
656.85	4.6324E-01
657.18	4.6828E-01
657.51	4.6899E-01
657.85	4.7037E-01
658.18	4.7270E-01
658.51	4.7319E-01
658.84	4.7155E-01
659.17	4.7224E-01
659.50	4.7332E-01
659.83	4.7367E-01
660.16	4.7529E-01
660.49	4.7689E-01
660.83	4.7849E-01
661.16	4.7898E-01
661.49	4.7864E-01
661.82	4.8278E-01
662.15	4.8323E-01
662.48	4.8494E-01
662.81	4.8803E-01
663.14	4.8478E-01
663.47	4.8861E-01
663.80	4.8794E-01
664.13	4.8630E-01
664.46	4.9052E-01
664.79	4.8892E-01
665.12	4.8990E-01
665.45	4.9360E-01
665.78	4.8901E-01
666.11	4.9405E-01
666.44	4.9395E-01
666.77	4.9529E-01
667.10	4.9604E-01
667.43	4.9728E-01
667.76	5.0032E-01
668.09	5.0083E-01
668.42	5.0483E-01
668.75	5.0471E-01
669.08	5.0345E-01
669.41	5.0445E-01
669.74	5.0394E-01
670.07	5.0910E-01
670.40	5.0297E-01
670.73	5.0617E-01
671.06	5.0574E-01
671.39	5.1029E-01
671.72	5.0696E-01
672.04	5.1220E-01
672.37	5.1260E-01
672.70	5.1079E-01
673.03	5.1452E-01
673.36	5.1718E-01
673.69	5.0954E-01
674.02	5.1342E-01
674.35	5.1693E-01
674.68	5.1589E-01
675.00	5.1582E-01
675.33	5.2033E-01
675.66	5.1736E-01
675.99	5.1651E-01
676.32	5.2184E-01
676.65	5.0995E-01
676.97	5.1913E-01
677.30	5.1637E-01
677.63	5.1957E-01
677.96	5.2222E-01
678.29	5.1937E-01
678.62	5.2057E-01
678.94	5.2079E-01
679.27	5.1859E-01
679.60	5.2101E-01
679.93	5.2164E-01
680.26	5.2061E-01
680.58	5.2310E-01
680.91	5.1915E-01
681.24	5.2057E-01
681.57	5.1841E-01
681.89	5.1881E-01
682.22	5.1934E-01
682.55	5.2085E-01
682.88	5.2391E-01
683.20	5.2376E-01
683.53	5.2354E-01
683.86	5.2191E-01
684.19	5.1956E-01
684.51	5.2192E-01
684.84	5.2290E-01
685.17	5.2589E-01
685.49	5.2111E-01
685.82	5.2488E-01
686.15	5.2325E-01
686.48	5.2322E-01
686.80	5.2402E-01
687.13	5.2686E-01
687.46	5.2702E-01
687.78	5.2444E-01
688.11	5.2204E-01
688.44	5.2200E-01
688.76	5.2180E-01
689.09	5.2067E-01
689.42	5.2343E-01
689.74	5.2565E-01
690.07	5.2633E-01
690.39	5.2428E-01
690.72	5.2408E-01
691.05	5.2628E-01
691.37	5.2161E-01
691.70	5.2388E-01
692.02	5.2006E-01
692.35	5.2471E-01
692.68	5.2530E-01
693.00	5.2500E-01
693.33	5.1897E-01
693.65	5.2567E-01
693.98	5.2403E-01
694.31	5.1927E-01
694.63	5.2267E-01
694.96	5.2004E-01
695.28	5.1668E-01
695.61	5.1805E-01
695.93	5.1964E-01
696.26	5.1472E-01
696.58	5.1579E-01
696.91	5.1749E-01
697.23	5.1708E-01
697.56	5.1596E-01
697.88	5.1497E-01
698.21	5.1500E-01
698.53	5.1396E-01
698.86	5.0732E-01
699.18	5.1120E-01
699.51	5.0629E-01
699.83	5.0180E-01
700.16	5.0864E-01
700.48	5.0179E-01
700.81	5.1055E-01
701.13	5.0241E-01
701.46	5.0447E-01
701.78	5.0109E-01
702.11	4.9891E-01
702.43	4.9680E-01
702.75	5.0413E-01
703.08	5.0050E-01
703.40	4.9663E-01
703.73	5.0343E-01
704.05	4.9387E-01
704.37	4.9418E-01
704.70	4.9560E-01
705.02	4.9573E-01
705.35	4.9903E-01
705.67	4.9294E-01
705.99	4.9241E-01
706.32	4.9734E-01
706.64	4.9404E-01
706.96	4.8863E-01
707.29	4.9298E-01
707.61	4.8690E-01
707.94	4.8950E-01
708.26	4.9010E-01
708.58	4.7983E-01
708.91	4.8570E-01
709.23	4.7673E-01
709.55	4.7448E-01
709.87	4.6463E-01
710.20	4.6469E-01
710.52	4.5690E-01
710.84	4.5478E-01
711.17	4.4746E-01
711.49	4.2938E-01
711.81	4.2192E-01
712.14	4.1310E-01
712.46	4.0418E-01
712.78	3.9001E-01
713.10	3.7513E-01
713.43	3.5652E-01
713.75	3.4526E-01
714.07	3.3126E-01
714.39	3.0960E-01
714.72	2.9720E-01
715.04	2.8237E-01
715.36	2.6667E-01
715.68	2.4932E-01
716.00	2.3269E-01
716.33	2.1846E-01
716.65	2.0244E-01
716.97	1.8832E-01
717.29	1.7493E-01
717.61	1.5780E-01
717.94	1.4950E-01
718.26	1.4011E-01
718.58	1.3215E-01
718.90	1.1971E-01
719.22	1.1091E-01
719.54	1.0043E-01
719.87	9.1583E-02
720.19	8.5547E-02
720.51	7.7363E-02
720.83	7.3660E-02
721.15	6.8021E-02
721.47	6.1851E-02
721.79	5.9031E-02
722.11	4.9317E-02
722.44	4.9733E-02
722.76	4.4746E-02
723.08	4.0781E-02
723.40	3.9006E-02
723.72	3.7189E-02
724.04	3.5235E-02
724.36	2.9206E-02
724.68	3.0244E-02
725.00	2.8168E-02
725.32	2.5091E-02
725.64	2.6262E-02
725.96	2.1277E-02
726.28	2.0636E-02
726.60	1.9501E-02
726.93	1.7034E-02
727.25	1.9118E-02
727.57	1.4842E-02
727.89	1.5922E-02
728.21	1.4129E-02
728.53	1.5563E-02
728.85	1.6341E-02
729.17	1.2106E-02
729.49	1.3153E-02
729.81	9.2142E-03
730.13	6.4656E-03
730.45	8.3182E-03
730.76	1.0163E-02
731.08	9.4302E-03
731.40	8.2670E-03
731.72	8.0402E-03
732.04	8.2349E-03
732.36	9.5375E-03
732.68	7.1386E-03
733.00	8.1542E-03
733.32	7.0757E-03
733.64	6.0100E-03
733.96	7.0035E-03
734.28	5.8943E-03
734.60	4.7790E-03
734.92	5.9303E-03
735.23	5.9595E-03
735.55	6.9835E-03
735.87	4.2322E-03
736.19	4.7299E-03
736.51	4.6043E-03
736.83	7.4365E-03
737.15	5.2273E-03
737.47	4.8032E-03
737.78	7.4526E-03
738.10	3.1795E-03
738.42	4.2922E-03
738.74	6.1939E-03
739.06	1.5457E-03
739.38	4.4046E-03
739.69	4.2519E-03
740.01	3.7810E-03
740.33	9.0692E-04
740.65	3.8087E-03
740.97	1.5606E-03
741.28	5.8955E-03
741.60	3.5190E-03
741.92	1.2339E-03
742.24	3.8213E-03
742.55	3.6468E-04
742.87	1.5035E-03
743.19	8.0299E-04
743.51	3.1205E-03
743.83	2.0050E-03
744.14	4.9014E-03
744.46	2.0680E-03
744.78	4.2530E-03
745.09	4.1213E-03
745.41	4.8118E-03
745.73	3.0038E-03
746.05	2.7697E-03
746.36	5.4995E-03
746.68	2.5449E-03
747.00	2.0205E-03
747.31	1.8636E-03
747.63	2.0415E-03
747.95	1.5455E-03
748.26	5.1897E-03
748.58	1.8972E-03
748.90	7.0800E-03
749.21	2.3821E-04
749.53	3.9360E-03
749.85	2.5951E-03
750.16	4.6371E-03
750.48	1.0597E-03
750.80	4.4948E-03
751.11	3.6358E-03
751.43	1.6061E-03
751.74	3.6562E-03
752.06	2.8706E-03
752.38	1.7029E-03
752.69	-1.2602E-03
753.01	2.5517E-03
753.32	3.1442E-03
753.64	1.5883E-03
753.95	2.0918E-03
754.27	4.2392E-03
754.59	1.7711E-03
754.90	2.3257E-03
755.22	2.3652E-03
755.53	7.6025E-04
755.85	1.3193E-03
756.16	1.7619E-03
756.48	2.1928E-03
756.79	3.4340E-03
757.11	5.3447E-03
757.42	1.3267E-03
757.74	4.5462E-03
758.05	9.6594E-04
758.37	4.7172E-03
758.68	3.6801E-03
759.00	4.0652E-03
759.31	3.6160E-03
759.63	4.5219E-03
759.94	3.7460E-03
760.26	5.3880E-03
760.57	3.0344E-03
760.89	4.0684E-03
761.20	3.5643E-03
761.52	4.3845E-03
761.83	-1.1189E-03
762.14	-3.4183E-04
762.46	-2.1731E-04
762.77	-9.0106E-04
763.09	3.5859E-03
763.40	1.0526E-03
763.71	1.1408E-03
764.03	2.4057E-03
764.34	7.0651E-04
764.66	3.5416E-03
764.97	1.1757E-03
765.28	4.6428E-04
765.60	2.0326E-03
765.91	2.9383E-03
766.22	6.2179E-04
766.54	-1.2432E-04
766.85	3.1175E-03
767.16	9.0106E-04
767.48	1.7831E-03
767.79	-5.6501E-04
768.10	1.5123E-03
768.42	4.2665E-03
768.73	1.2700E-03
769.04	1.9986E-03
769.36	-2.6839E-03
769.67	2.8557E-03
769.98	1.1574E-03
770.30	-2.0946E-03
770.61	2.2656E-03
770.92	9.7064E-05
771.23	1.8604E-03
771.55	-3.2751E-05
771.86	3.3160E-03
772.17	2.4882E-03
772.48	1.4639E-03
772.80	1.3625E-03
773.11	2.3175E-03
773.42	3.5100E-03
773.73	-1.3947E-03
774.04	1.5677E-03
774.36	2.0923E-03
774.67	3.2393E-03
774.98	4.2367E-03
775.29	1.7687E-03
775.60	-1.5381E-03
775.92	5.7841E-03
776.23	3.4605E-03
776.54	8.1638E-04
776.85	1.3951E-03
777.16	2.0384E-03
777.47	8.6004E-04
777.79	3.2977E-03
778.10	1.9579E-03
778.41	6.5693E-04
778.72	1.6604E-03
779.03	-7.3943E-04
779.34	5.1358E-03
779.65	4.2122E-03
779.96	-2.3409E-03
780.28	3.0308E-03
780.59	-1.7279E-17
780.90	1.5321E-04
781.21	2.6223E-03
781.52	-2.4327E-03
781.83	2.3775E-03
782.14	-3.8969E-04
782.45	1.9263E-03
782.76	3.4230E-03
783.07	1.5896E-03
783.38	3.0716E-03
783.69	6.0413E-04
784.00	4.8645E-03
784.31	-1.6307E-04
784.62	2.6260E-03
784.93	5.3139E-03
785.24	5.3641E-04
785.55	2.5524E-03
785.86	3.7374E-03
786.17	2.3404E-03
786.48	3.6710E-03
786.79	1.9051E-03
787.10	-2.7348E-03
787.41	-1.2054E-03
787.72	3.4008E-03
788.03	1.6053E-03
788.34	3.0473E-04
788.65	3.0849E-03
788.96	7.0702E-04
789.27	3.5454E-04
789.58	-3.5656E-03
789.89	-4.4903E-05
790.20	-1.7481E-03
790.51	1.4581E-03
790.82	5.3234E-03
791.13	3.3955E-03
791.43	1.2941E-03
791.74	2.7821E-03
792.05	-1.8622E-03
792.36	2.1062E-03
792.67	2.7428E-03
792.98	-2.7882E-03
793.29	3.4834E-03
793.60	3.7459E-03
793.90	1.3553E-03
794.21	2.4280E-04
794.52	4.9312E-03
794.83	2.4729E-03
795.14	-3.5933E-03
795.45	1.9621E-03
795.75	2.2242E-03
796.06	7.0197E-04
796.37	5.6849E-03
796.68	7.5834E-04
796.99	3.4085E-03
797.29	2.4551E-03
797.60	-1.5449E-04
797.91	1.8585E-03
798.22	8.8228E-04
798.53	-3.6176E-03
798.83	5.5370E-03
799.14	4.5908E-03
799.45	6.8959E-04
799.76	2.7752E-03
800.06	-1.3422E-03
800.37	-2.1488E-03
800.68	5.9697E-04
800.98	6.5763E-03
801.29	-7.1401E-03
801.60	-2.7472E-03
801.91	3.3223E-04
802.21	7.7896E-04
802.52	1.2861E-03
802.83	-6.1880E-04
803.13	-5.1979E-03
803.44	4.7802E-03
803.75	-6.3011E-04
804.05	-6.3201E-04
804.36	4.0895E-03
804.67	6.8871E-03
804.97	5.8330E-03
805.28	1.5802E-03
805.59	-1.3599E-03
805.89	1.7753E-04
806.20	5.1441E-03
806.50	5.9975E-04
806.81	-3.4991E-03
807.12	7.7242E-03
807.42	6.1116E-04
807.73	1.4708E-03
808.03	2.3356E-03
808.34	1.2987E-03
808.65	4.3615E-03
808.95	-4.3219E-03
809.26	7.7480E-03
809.56	-4.4286E-03
809.87	-3.0543E-03
810.17	3.8435E-04
810.48	3.1629E-03
810.78	-8.4150E-04
811.09	-3.8481E-03
811.39	8.0600E-03
811.70	5.3130E-03
812.00	3.5613E-03
812.31	1.9837E-03
812.61	3.6754E-03
812.92	3.4941E-03
813.22	-1.5467E-03
813.53	1.2427E-02
813.83	8.0936E-03
814.14	2.0529E-04
814.44	1.3803E-03
814.75	-2.3475E-03
815.05	1.1138E-03
815.36	1.8244E-03
815.66	2.2547E-03
815.97	2.6224E-03
816.27	-5.0033E-04
816.57	6.5059E-17
816.88	6.1247E-03
817.18	1.8857E-03
817.49	-1.1663E-03
817.79	-3.2287E-03
818.09	9.5608E-04
818.40	6.9619E-03
818.70	-3.7073E-04
819.01	7.4499E-04
819.31	2.6331E-03
819.61	2.7219E-03
819.92	-2.8940E-03
820.22	9.3877E-03
820.52	3.0767E-03
820.83	6.4026E-03
821.13	-6.2427E-04
821.43	1.9570E-03
821.74	-2.7550E-03
822.04	-3.9499E-03
822.34	5.4989E-04
822.65	-3.1997E-04
822.95	1.2855E-03
823.25	-4.1360E-03
823.56	2.5987E-03
823.86	6.7818E-03
824.16	3.9574E-03
824.46	2.6367E-03
824.77	-4.7626E-03
825.07	3.2794E-03
825.37	-7.1446E-03
825.67	-7.5289E-03
825.98	6.8328E-04
826.28	4.2027E-03
826.58	3.4584E-03
826.88	8.4597E-03
827.19	7.1347E-03
827.49	3.9500E-03
827.79	8.3759E-03
828.09	3.2621E-03
828.39	-7.7661E-03
828.70	4.6635E-03
829.00	6.3579E-03
829.30	1.4572E-03
829.60	-9.2811E-03
829.90	-2.8174E-03
830.20	6.0900E-03
830.51	-9.3222E-05
830.81	-1.8809E-03
831.11	5.8623E-03
831.41	2.1802E-03
831.71	-8.0862E-03
832.01	-6.5318E-03
832.31	-7.7044E-04
832.61	7.4577E-03
832.92	6.0419E-03
833.22	-6.6045E-03
833.52	5.1208E-03
833.82	5.7511E-03
834.12	5.6771E-03
834.42	1.0921E-03
834.72	3.1161E-03
835.02	9.6321E-03
835.32	6.6438E-03
835.62	3.0844E-04
835.92	-4.1420E-03
836.22	-4.0675E-03
836.52	6.9728E-03
836.82	-1.2617E-03
837.12	6.0934E-03
837.42	1.3682E-02
837.72	1.1919E-02
838.02	3.0046E-03
838.32	-2.3766E-03
838.62	5.8807E-03
838.92	-2.5208E-03
839.22	1.4377E-03
839.52	-1.3395E-03
839.82	-6.7274E-04
840.12	9.0141E-04
840.42	7.8239E-03
840.72	1.1860E-02
841.02	-7.1103E-03
841.32	1.3645E-02
841.62	1.5479E-02
841.92	6.3083E-03
842.22	-7.6260E-03
842.52	4.3657E-03
842.82	1.5478E-03
843.12	3.9426E-03
843.41	7.7066E-03
843.71	1.0171E-02
844.01	2.8104E-03
844.31	-3.6634E-03
844.61	-1.1115E-02
844.91	-9.9151E-04
845.21	7.3629E-03
845.51	-4.5419E-03
845.80	7.0757E-03
846.10	1.0197E-03
846.40	-3.9506E-03
846.70	-2.9813E-03
847.00	-6.9227E-03
847.30	1.7037E-02
847.59	-7.5193E-03
847.89	-3.5901E-03
848.19	4.4182E-03
848.49	3.7468E-03
848.79	4.0613E-04
849.08	8.7297E-03
849.38	1.9076E-02
849.68	1.2843E-02
849.98	4.8685E-03
850.27	-3.6050E-03
850.57	6.4860E-03
850.87	-3.5500E-03
851.17	6.4693E-17
851.46	-3.4494E-03
851.76	1.3480E-02
852.06	7.2861E-03
852.35	1.1755E-03
852.65	2.5083E-03
852.95	1.3357E-03
853.25	-5.5318E-03
853.54	-1.1947E-03
853.84	-1.7990E-02
854.14	5.4950E-03
854.43	6.6059E-03
854.73	1.7642E-02
855.03	7.1596E-03
855.32	-3.9168E-03
855.62	1.2648E-03
855.92	1.6352E-02
856.21	3.9951E-03
856.51	0.0000E00
856.80	-1.1697E-02
857.10	4.4281E-03
857.40	3.9621E-03
857.69	8.2785E-03
857.99	-2.8344E-03
858.29	1.6818E-03
858.58	-2.5394E-03
858.88	-1.6180E-02
859.17	-1.2189E-02
859.47	-1.5580E-03
859.76	1.0981E-02
860.06	2.2493E-02
860.35	1.7657E-04
860.65	1.0139E-02
860.95	-3.4061E-03
861.24	-4.6957E-03
861.54	-1.0834E-03
861.83	1.0924E-02
862.13	7.1783E-03
862.42	6.0995E-03
862.72	2.4083E-03
863.01	1.0345E-02
863.31	2.1950E-02
863.60	7.6162E-04
863.90	1.3004E-02
864.19	-4.9904E-03
864.49	-1.3251E-02
864.78	-1.4446E-02
865.07	1.0455E-02
865.37	-5.9958E-03
865.66	7.4503E-03
865.96	1.8220E-03
866.25	-1.9119E-02
866.55	3.0765E-03
866.84	-1.2429E-03
867.13	0.0000E00
867.43	1.8893E-03
867.72	1.8292E-02
868.02	1.4723E-02
868.31	1.2450E-02
868.60	1.4108E-02
868.90	1.6216E-02
869.19	9.2240E-03
869.48	-1.5315E-02
869.78	1.4076E-02
870.07	-1.2681E-02
870.37	1.9776E-02
870.66	4.5978E-03
870.95	6.4835E-03
871.25	-4.8590E-03
871.54	-1.8047E-02
871.83	-1.6596E-03
872.12	-5.0154E-03
872.42	-1.2524E-02
872.71	7.2661E-03
873.00	-9.5067E-03
873.30	-7.4012E-03
873.59	2.2365E-03
873.88	1.8297E-02
874.17	-1.2412E-02
874.47	1.9331E-02
874.76	-1.0287E-03
875.05	-2.7432E-02
875.34	7.0240E-03
875.64	2.1661E-02
875.93	1.6197E-02
876.22	2.2849E-02
876.51	7.3121E-03
876.80	3.2904E-02
877.10	-3.5749E-02
877.39	-3.6018E-03
877.68	-2.2423E-03
877.97	1.4162E-03
878.26	-1.4523E-02
878.56	2.5591E-02
878.85	-2.8825E-03
879.14	-3.1978E-02
879.43	1.6490E-02
879.72	-1.1696E-03
880.01	1.5107E-02
880.30	-1.8589E-02
880.60	-1.8590E-02
880.89	-1.8590E-02
>>>>>End Processed Spectral Data<<<<<
